# FILE      =  Cold.ast
# NOTEA     = GPIOLabs 8"horn Pi#7
# NOTEB     = Spectral Integration AIRSPY-mini Test
# OBSERVER  = Science Aficionado
# DEVICE    = airspy,bias=0
# DATADIR   = ../data/
# SITE      = GPIOLabs 8"horn Pi#7
# CITY      = Green Bank
# REGION    = West Virginia
# COUNTRY   = US
# TELTYPE   = Bubble Wrap  Horn
# FRAME     = TOPO
# GAIN1     = 17.0
# GAIN2     = 0.0
# GAIN3     = 0.0
# GAIN4     = 0.0
# Count     = 40941
# REFFREQ   = 1420405751.768
# OBSFREQ   = 1421500000.0
# OBSBW     = 6000000.0
# Duration  = 12.543115
# DeltaX    = 5859.375
# TSYS      = 200.0
# TRX       = 100.0
# TRMS      = 2.0
# TINT      = 1.0
# KPERC     = 100.0
# GAINFACT  = 1.0
# BUNIT     = Counts
# NCHAN     = 2048
# NSPEC     = 1
# NTIME     = 0
# NSAMPLES  = 0
# EPEAK     = 4.10875183718
# ERMS      = 0.995973393526
# EMJD      = 58568.808999981004 
# REFCHAN   = 1024.0
# REFSAMPL  = 256.0
# NAVE      = 40941
# NMEDIAN   = 1024
# Fft_rate  = 5000
# UTC       = 2021-12-08 21:34:13.429186
# SECONDS   =       0.0000000000 
# LST       = 01:25:27.828
# AZ        = 0.0
# EL        = 90.0
# TELLON    = -79:50:22.920
# TELLAT    = +38:25:59.160
# TELALT    = 0.0
# RA        = 09:19:38.400
# DEC       = +06:45:09.600
# GALLON    = 224:54:45.00
# GALLAT    = +35:52:58.60
# ALT_SUN   = +04:07:48.8
# AZ_SUN    = +236:35:06.5
# ETAA      = 0.8
# ETAB      = 0.99
# POLANGLE  = 0.0
# TELSIZEAM = 1.0
# TELSIZEBM = 1.0
# AST_VERS  = 5.0.1
# N  Frequency  Intensity 
#       (Hz)    (Counts) 
0000 1418500000 10.1207
0001 1418502929 10.6425
0002 1418505859 10.0438
0003 1418508789 11.7238
0004 1418511718 7.0612
0005 1418514648 15.9334
0006 1418517578 16.1709
0007 1418520507 8.6154
0008 1418523437 22.3771
0009 1418526367 13.6410
0010 1418529296 10.5862
0011 1418532226 21.3747
0012 1418535156 10.1812
0013 1418538085 11.8476
0014 1418541015 15.9914
0015 1418543945 9.1087
0016 1418546875 11.9473
0017 1418549804 11.8591
0018 1418552734 9.3607
0019 1418555664 10.9801
0020 1418558593 10.3410
0021 1418561523 9.8879
0022 1418564453 10.4318
0023 1418567382 10.4672
0024 1418570312 11.0113
0025 1418573242 11.1822
0026 1418576171 11.8295
0027 1418579101 14.4783
0028 1418582031 13.4236
0029 1418584960 23.0435
0030 1418587890 70.9979
0031 1418590820 29.5593
0032 1418593750 18.8161
0033 1418596679 21.0282
0034 1418599609 14.6513
0035 1418602539 14.8109
0036 1418605468 15.2446
0037 1418608398 15.3618
0038 1418611328 15.9898
0039 1418614257 16.4756
0040 1418617187 17.0185
0041 1418620117 17.6976
0042 1418623046 18.3916
0043 1418625976 19.0656
0044 1418628906 19.8487
0045 1418631835 20.6058
0046 1418634765 21.3752
0047 1418637695 22.3794
0048 1418640625 23.3302
0049 1418643554 24.2958
0050 1418646484 25.2792
0051 1418649414 26.4326
0052 1418652343 27.7343
0053 1418655273 28.9077
0054 1418658203 30.5449
0055 1418661132 32.4599
0056 1418664062 33.4952
0057 1418666992 35.7465
0058 1418669921 37.0878
0059 1418672851 38.7412
0060 1418675781 44.9328
0061 1418678710 44.3712
0062 1418681640 50.0730
0063 1418684570 58.0822
0064 1418687500 49.5258
0065 1418690429 50.4585
0066 1418693359 53.1917
0067 1418696289 55.5173
0068 1418699218 58.4316
0069 1418702148 61.0811
0070 1418705078 64.2341
0071 1418708007 67.1966
0072 1418710937 70.5398
0073 1418713867 74.4232
0074 1418716796 78.2071
0075 1418719726 82.3393
0076 1418722656 86.5623
0077 1418725585 90.8959
0078 1418728515 95.9188
0079 1418731445 100.4269
0080 1418734375 105.3207
0081 1418737304 110.4335
0082 1418740234 115.7994
0083 1418743164 122.1176
0084 1418746093 128.3075
0085 1418749023 134.7594
0086 1418751953 141.1761
0087 1418754882 149.0683
0088 1418757812 156.4116
0089 1418760742 163.5115
0090 1418763671 172.8618
0091 1418766601 181.0029
0092 1418769531 194.9136
0093 1418772460 213.5647
0094 1418775390 211.0005
0095 1418778320 219.2400
0096 1418781250 228.2353
0097 1418784179 239.6361
0098 1418787109 251.2567
0099 1418790039 262.7346
0100 1418792968 274.7271
0101 1418795898 288.3582
0102 1418798828 301.3228
0103 1418801757 314.8431
0104 1418804687 331.1977
0105 1418807617 344.6505
0106 1418810546 361.4792
0107 1418813476 377.4916
0108 1418816406 395.9119
0109 1418819335 413.8873
0110 1418822265 429.9896
0111 1418825195 453.0685
0112 1418828125 481.3673
0113 1418831054 507.5316
0114 1418833984 531.5121
0115 1418836914 551.2734
0116 1418839843 561.8577
0117 1418842773 581.8400
0118 1418845703 606.2415
0119 1418848632 633.9099
0120 1418851562 660.1133
0121 1418854492 688.0790
0122 1418857421 721.4967
0123 1418860351 759.6125
0124 1418863281 779.4705
0125 1418866210 807.6894
0126 1418869140 839.8069
0127 1418872070 871.7330
0128 1418875000 906.7568
0129 1418877929 943.3170
0130 1418880859 983.9020
0131 1418883789 1014.3950
0132 1418886718 1055.3857
0133 1418889648 1102.0651
0134 1418892578 1142.6149
0135 1418895507 1185.8625
0136 1418898437 1228.2700
0137 1418901367 1273.2164
0138 1418904296 1319.0933
0139 1418907226 1373.8123
0140 1418910156 1425.7070
0141 1418913085 1473.3632
0142 1418916015 1528.8690
0143 1418918945 1583.2742
0144 1418921875 1637.7163
0145 1418924804 1695.3613
0146 1418927734 1757.1055
0147 1418930664 1826.0726
0148 1418933593 1885.9520
0149 1418936523 1943.7694
0150 1418939453 2011.9670
0151 1418942382 2085.3875
0152 1418945312 2166.2559
0153 1418948242 2229.9375
0154 1418951171 2300.1846
0155 1418954101 2379.3816
0156 1418957031 2462.0679
0157 1418959960 2520.2615
0158 1418962890 2607.7207
0159 1418965820 2694.9792
0160 1418968750 2779.2979
0161 1418971679 2862.9907
0162 1418974609 2958.9382
0163 1418977539 3057.5989
0164 1418980468 3152.7688
0165 1418983398 3234.0413
0166 1418986328 3302.5757
0167 1418989257 3398.3337
0168 1418992187 3529.5056
0169 1418995117 3625.5522
0170 1418998046 3736.6223
0171 1419000976 3853.9302
0172 1419003906 3937.7124
0173 1419006835 4038.8447
0174 1419009765 4164.6826
0175 1419012695 4273.0283
0176 1419015625 4405.9712
0177 1419018554 4530.6021
0178 1419021484 4649.7056
0179 1419024414 4746.8076
0180 1419027343 4883.6089
0181 1419030273 5012.0347
0182 1419033203 5119.7344
0183 1419036132 5236.6650
0184 1419039062 5376.9717
0185 1419041992 5477.7710
0186 1419044921 5644.7930
0187 1419047851 5788.6851
0188 1419050781 5906.2407
0189 1419053710 6042.1807
0190 1419056640 6185.1475
0191 1419059570 6341.2192
0192 1419062500 6468.7681
0193 1419065429 6637.8887
0194 1419068359 6762.3750
0195 1419071289 6871.1685
0196 1419074218 7057.9434
0197 1419077148 7181.3496
0198 1419080078 7341.1543
0199 1419083007 7489.1509
0200 1419085937 7662.4492
0201 1419088867 7822.4868
0202 1419091796 7960.6016
0203 1419094726 8115.0278
0204 1419097656 8319.1016
0205 1419100585 8419.3955
0206 1419103515 8603.6592
0207 1419106445 8756.1045
0208 1419109375 8850.3223
0209 1419112304 9016.0342
0210 1419115234 9219.9736
0211 1419118164 9334.9609
0212 1419121093 9517.5293
0213 1419124023 9670.4756
0214 1419126953 9841.6211
0215 1419129882 9990.1895
0216 1419132812 10152.5996
0217 1419135742 10333.2998
0218 1419138671 10504.4893
0219 1419141601 10602.2217
0220 1419144531 10750.7773
0221 1419147460 10929.3809
0222 1419150390 11108.5586
0223 1419153320 11225.1504
0224 1419156250 11426.1660
0225 1419159179 11576.4746
0226 1419162109 11729.1650
0227 1419165039 11861.9951
0228 1419167968 12055.8975
0229 1419170898 12245.0840
0230 1419173828 12360.7783
0231 1419176757 12525.9482
0232 1419179687 12636.1113
0233 1419182617 12733.8262
0234 1419185546 12844.1943
0235 1419188476 13112.6924
0236 1419191406 13274.7324
0237 1419194335 13353.1387
0238 1419197265 13510.0879
0239 1419200195 13637.4893
0240 1419203125 13745.1143
0241 1419206054 13919.5078
0242 1419208984 13981.3262
0243 1419211914 14201.1719
0244 1419214843 14303.4844
0245 1419217773 14446.8174
0246 1419220703 14603.1768
0247 1419223632 14727.3203
0248 1419226562 14823.8506
0249 1419229492 14915.4824
0250 1419232421 15033.5098
0251 1419235351 15174.9766
0252 1419238281 15262.3496
0253 1419241210 15406.9766
0254 1419244140 15529.9346
0255 1419247070 15631.8154
0256 1419250000 15749.4229
0257 1419252929 15841.7295
0258 1419255859 16006.6455
0259 1419258789 16016.9131
0260 1419261718 16081.4531
0261 1419264648 16256.4619
0262 1419267578 16364.7012
0263 1419270507 16502.8242
0264 1419273437 16537.2363
0265 1419276367 16588.6777
0266 1419279296 16751.5039
0267 1419282226 16813.0176
0268 1419285156 16924.7832
0269 1419288085 17003.9766
0270 1419291015 17074.0117
0271 1419293945 17211.1699
0272 1419296875 17241.8730
0273 1419299804 17243.0566
0274 1419302734 17438.3730
0275 1419305664 17464.6621
0276 1419308593 17574.0781
0277 1419311523 17660.0352
0278 1419314453 17726.9414
0279 1419317382 17787.5273
0280 1419320312 17777.7910
0281 1419323242 17968.0801
0282 1419326171 17977.1543
0283 1419329101 18042.1289
0284 1419332031 18102.9941
0285 1419334960 18157.6562
0286 1419337890 18186.5508
0287 1419340820 18200.1641
0288 1419343750 18307.5996
0289 1419346679 18367.5879
0290 1419349609 18543.8516
0291 1419352539 18428.9395
0292 1419355468 18524.6777
0293 1419358398 18616.6152
0294 1419361328 18600.4707
0295 1419364257 18653.4199
0296 1419367187 18734.1992
0297 1419370117 18632.9473
0298 1419373046 18730.7090
0299 1419375976 18748.3574
0300 1419378906 18793.0742
0301 1419381835 18899.8887
0302 1419384765 18871.2129
0303 1419387695 18956.9512
0304 1419390625 18902.8359
0305 1419393554 18936.2812
0306 1419396484 19079.0332
0307 1419399414 19046.3008
0308 1419402343 19185.3457
0309 1419405273 19177.0195
0310 1419408203 19112.4336
0311 1419411132 19107.5742
0312 1419414062 19245.9590
0313 1419416992 19105.8730
0314 1419419921 19217.0371
0315 1419422851 19149.2930
0316 1419425781 19142.5020
0317 1419428710 19267.7285
0318 1419431640 19160.1016
0319 1419434570 19321.5605
0320 1419437500 19316.9043
0321 1419440429 19298.6875
0322 1419443359 19320.7480
0323 1419446289 19322.8730
0324 1419449218 19421.6797
0325 1419452148 19512.4668
0326 1419455078 19411.5469
0327 1419458007 19303.0371
0328 1419460937 19362.2734
0329 1419463867 19416.1465
0330 1419466796 19379.8281
0331 1419469726 19389.3574
0332 1419472656 19435.5977
0333 1419475585 19433.5820
0334 1419478515 19523.6543
0335 1419481445 19371.4004
0336 1419484375 19422.1445
0337 1419487304 19395.8711
0338 1419490234 19448.1523
0339 1419493164 19398.5996
0340 1419496093 19540.8379
0341 1419499023 19453.1816
0342 1419501953 19446.8828
0343 1419504882 19475.3789
0344 1419507812 19404.1133
0345 1419510742 19490.5469
0346 1419513671 19494.4609
0347 1419516601 19369.0547
0348 1419519531 19395.1777
0349 1419522460 19479.2676
0350 1419525390 19510.9062
0351 1419528320 19355.0781
0352 1419531250 19373.6055
0353 1419534179 19441.2637
0354 1419537109 19370.9375
0355 1419540039 19387.9766
0356 1419542968 19346.0859
0357 1419545898 19405.8789
0358 1419548828 19391.8516
0359 1419551757 19401.7871
0360 1419554687 19344.8438
0361 1419557617 19340.3574
0362 1419560546 19374.3047
0363 1419563476 19351.6699
0364 1419566406 19399.7285
0365 1419569335 19335.2773
0366 1419572265 19408.7578
0367 1419575195 19392.4961
0368 1419578125 19422.4375
0369 1419581054 19323.6094
0370 1419583984 19328.8770
0371 1419586914 19354.2520
0372 1419589843 19228.4824
0373 1419592773 19266.5234
0374 1419595703 19361.0137
0375 1419598632 19321.1934
0376 1419601562 19296.9941
0377 1419604492 19248.4102
0378 1419607421 19293.0859
0379 1419610351 19192.1465
0380 1419613281 19248.2656
0381 1419616210 19258.9258
0382 1419619140 19259.7285
0383 1419622070 19309.9512
0384 1419625000 19243.0527
0385 1419627929 19310.0195
0386 1419630859 19227.1699
0387 1419633789 19152.0664
0388 1419636718 19076.5488
0389 1419639648 19129.8770
0390 1419642578 19287.7246
0391 1419645507 19166.5137
0392 1419648437 19152.2031
0393 1419651367 19251.7734
0394 1419654296 19148.1797
0395 1419657226 19158.4258
0396 1419660156 19203.6309
0397 1419663085 19185.4609
0398 1419666015 19178.0820
0399 1419668945 19130.4492
0400 1419671875 19068.1504
0401 1419674804 19138.7188
0402 1419677734 19067.3867
0403 1419680664 19020.8730
0404 1419683593 19053.4688
0405 1419686523 19016.6680
0406 1419689453 19147.6973
0407 1419692382 19055.5898
0408 1419695312 18936.2793
0409 1419698242 19002.0723
0410 1419701171 19058.1621
0411 1419704101 19055.4844
0412 1419707031 19055.7227
0413 1419709960 19029.5781
0414 1419712890 18950.1387
0415 1419715820 19089.8418
0416 1419718750 19002.4258
0417 1419721679 19014.1133
0418 1419724609 19079.4160
0419 1419727539 19003.9121
0420 1419730468 18922.1777
0421 1419733398 19056.8613
0422 1419736328 18970.8281
0423 1419739257 18979.0762
0424 1419742187 18993.4961
0425 1419745117 18932.1387
0426 1419748046 18920.9648
0427 1419750976 18916.3242
0428 1419753906 18876.4258
0429 1419756835 18868.6250
0430 1419759765 18836.5234
0431 1419762695 18885.0645
0432 1419765625 18884.3086
0433 1419768554 18860.0195
0434 1419771484 18877.5820
0435 1419774414 18861.9434
0436 1419777343 18896.5586
0437 1419780273 18716.9395
0438 1419783203 18911.9180
0439 1419786132 18851.2637
0440 1419789062 18877.1387
0441 1419791992 18877.7832
0442 1419794921 18929.2168
0443 1419797851 18844.4453
0444 1419800781 18815.2734
0445 1419803710 18881.0938
0446 1419806640 18866.0215
0447 1419809570 18858.0820
0448 1419812500 18793.4551
0449 1419815429 18884.9551
0450 1419818359 18831.3008
0451 1419821289 18852.0645
0452 1419824218 18802.6836
0453 1419827148 18865.3262
0454 1419830078 18891.0000
0455 1419833007 18884.9238
0456 1419835937 18775.2441
0457 1419838867 18835.7773
0458 1419841796 18794.4121
0459 1419844726 18763.7988
0460 1419847656 18732.4355
0461 1419850585 18801.5723
0462 1419853515 18879.2852
0463 1419856445 18775.9512
0464 1419859375 18781.2891
0465 1419862304 18888.2422
0466 1419865234 18730.2207
0467 1419868164 18824.1973
0468 1419871093 18761.7070
0469 1419874023 18744.5957
0470 1419876953 18749.2734
0471 1419879882 18810.3711
0472 1419882812 18779.7754
0473 1419885742 18799.7871
0474 1419888671 18677.3516
0475 1419891601 18784.1289
0476 1419894531 18726.7090
0477 1419897460 18826.1992
0478 1419900390 18759.6562
0479 1419903320 18645.1191
0480 1419906250 18770.5488
0481 1419909179 18793.3574
0482 1419912109 18753.5508
0483 1419915039 18667.9824
0484 1419917968 18751.3691
0485 1419920898 18724.3965
0486 1419923828 18724.9121
0487 1419926757 18780.8887
0488 1419929687 18747.9980
0489 1419932617 18750.9863
0490 1419935546 18713.3789
0491 1419938476 18836.9238
0492 1419941406 18709.0352
0493 1419944335 18643.5352
0494 1419947265 18735.0039
0495 1419950195 18720.9414
0496 1419953125 18727.6582
0497 1419956054 18759.6738
0498 1419958984 18835.9746
0499 1419961914 18784.5898
0500 1419964843 18852.1973
0501 1419967773 18736.1602
0502 1419970703 18751.9727
0503 1419973632 18768.7012
0504 1419976562 18709.1230
0505 1419979492 18748.2539
0506 1419982421 18795.5371
0507 1419985351 18772.5293
0508 1419988281 18754.6875
0509 1419991210 18869.5918
0510 1419994140 18798.8301
0511 1419997070 18841.5469
0512 1420000000 18795.5527
0513 1420002929 18823.7832
0514 1420005859 18797.7305
0515 1420008789 18809.8418
0516 1420011718 18777.3379
0517 1420014648 18804.0703
0518 1420017578 18829.7148
0519 1420020507 18748.3477
0520 1420023437 18784.1875
0521 1420026367 18775.1250
0522 1420029296 18799.4102
0523 1420032226 18775.3691
0524 1420035156 18750.0410
0525 1420038085 18761.0918
0526 1420041015 18776.1582
0527 1420043945 18797.4785
0528 1420046875 18698.5762
0529 1420049804 18771.4766
0530 1420052734 18765.4746
0531 1420055664 18901.6641
0532 1420058593 18809.8184
0533 1420061523 18829.2305
0534 1420064453 18840.4336
0535 1420067382 18900.6016
0536 1420070312 18825.7852
0537 1420073242 18793.4355
0538 1420076171 18862.3125
0539 1420079101 18830.3574
0540 1420082031 18806.0742
0541 1420084960 18823.6035
0542 1420087890 18906.4727
0543 1420090820 18836.5156
0544 1420093750 18832.8750
0545 1420096679 18913.1328
0546 1420099609 18856.6465
0547 1420102539 18849.3613
0548 1420105468 18940.0586
0549 1420108398 18895.7617
0550 1420111328 18862.3125
0551 1420114257 18884.7617
0552 1420117187 18822.5039
0553 1420120117 18915.1660
0554 1420123046 18934.8184
0555 1420125976 18987.1113
0556 1420128906 18869.1953
0557 1420131835 18876.0078
0558 1420134765 18930.4551
0559 1420137695 18894.2539
0560 1420140625 18994.6602
0561 1420143554 18913.5273
0562 1420146484 18920.4551
0563 1420149414 18954.2715
0564 1420152343 18905.1797
0565 1420155273 18994.9473
0566 1420158203 19050.3984
0567 1420161132 19001.7188
0568 1420164062 19128.5664
0569 1420166992 19023.4883
0570 1420169921 19070.6406
0571 1420172851 19078.2129
0572 1420175781 19022.1523
0573 1420178710 19093.6094
0574 1420181640 19057.1680
0575 1420184570 19074.8418
0576 1420187500 18978.2441
0577 1420190429 19042.5918
0578 1420193359 19032.7012
0579 1420196289 19060.6152
0580 1420199218 19083.5898
0581 1420202148 19072.0781
0582 1420205078 19003.6875
0583 1420208007 19167.7637
0584 1420210937 19078.7812
0585 1420213867 19062.8496
0586 1420216796 19215.3105
0587 1420219726 19023.6172
0588 1420222656 19069.2832
0589 1420225585 19255.5371
0590 1420228515 19105.3691
0591 1420231445 19211.3496
0592 1420234375 19241.5664
0593 1420237304 19232.5137
0594 1420240234 19214.5605
0595 1420243164 19251.1289
0596 1420246093 19229.8047
0597 1420249023 19228.3965
0598 1420251953 19366.6445
0599 1420254882 19322.3535
0600 1420257812 19290.5996
0601 1420260742 19252.9453
0602 1420263671 19396.3574
0603 1420266601 19415.5312
0604 1420269531 19495.0527
0605 1420272460 19445.0449
0606 1420275390 19496.5469
0607 1420278320 19532.7656
0608 1420281250 19631.7070
0609 1420284179 19608.5371
0610 1420287109 19601.4883
0611 1420290039 19771.2363
0612 1420292968 19859.9023
0613 1420295898 19835.2148
0614 1420298828 19902.3086
0615 1420301757 19952.9824
0616 1420304687 20082.3613
0617 1420307617 20129.2324
0618 1420310546 20216.8652
0619 1420313476 20321.6270
0620 1420316406 20417.7227
0621 1420319335 20561.9590
0622 1420322265 20677.0469
0623 1420325195 20829.3965
0624 1420328125 20994.3848
0625 1420331054 21107.5410
0626 1420333984 21385.3926
0627 1420336914 21448.0625
0628 1420339843 21630.9141
0629 1420342773 21842.9590
0630 1420345703 21972.7930
0631 1420348632 22225.6992
0632 1420351562 22254.3379
0633 1420354492 22398.6719
0634 1420357421 22495.7598
0635 1420360351 22615.9453
0636 1420363281 22746.2031
0637 1420366210 22790.9668
0638 1420369140 22845.8809
0639 1420372070 22922.6602
0640 1420375000 22998.7988
0641 1420377929 22877.3906
0642 1420380859 22758.0293
0643 1420383789 22744.6582
0644 1420386718 22700.3398
0645 1420389648 22662.0078
0646 1420392578 22624.5391
0647 1420395507 22555.8535
0648 1420398437 22377.0273
0649 1420401367 22360.5781
0650 1420404296 22216.2148
0651 1420407226 22296.1523
0652 1420410156 22123.9648
0653 1420413085 22014.0020
0654 1420416015 22015.1602
0655 1420418945 21962.9219
0656 1420421875 21927.2578
0657 1420424804 21795.2227
0658 1420427734 21737.0957
0659 1420430664 21690.2969
0660 1420433593 21526.3379
0661 1420436523 21453.5742
0662 1420439453 21425.1504
0663 1420442382 21384.5879
0664 1420445312 21319.4316
0665 1420448242 21358.5254
0666 1420451171 21301.2715
0667 1420454101 21214.9199
0668 1420457031 21203.1680
0669 1420459960 21166.3867
0670 1420462890 21130.9570
0671 1420465820 21016.4043
0672 1420468750 20974.8613
0673 1420471679 20934.7129
0674 1420474609 20762.7852
0675 1420477539 20814.6953
0676 1420480468 20680.3262
0677 1420483398 20672.2637
0678 1420486328 20678.7305
0679 1420489257 20547.0273
0680 1420492187 20635.5723
0681 1420495117 20599.3184
0682 1420498046 20611.3320
0683 1420500976 20525.0859
0684 1420503906 20510.3223
0685 1420506835 20382.4609
0686 1420509765 20464.9668
0687 1420512695 20300.2148
0688 1420515625 20312.3887
0689 1420518554 20277.7266
0690 1420521484 20213.7812
0691 1420524414 20253.4512
0692 1420527343 20270.8809
0693 1420530273 20214.4648
0694 1420533203 20153.7617
0695 1420536132 20199.6582
0696 1420539062 20195.8457
0697 1420541992 20172.5371
0698 1420544921 20147.8984
0699 1420547851 20088.1699
0700 1420550781 20018.8340
