# FILE      =  Hot.hot
# NOTEA     = GPIOLabs 8"horn Pi#7
# NOTEB     = Spectral Integration AIRSPY-mini Test
# OBSERVER  = Science Aficionado
# DEVICE    = airspy,bias=0
# DATADIR   = ../data/
# SITE      = GPIOLabs 8"horn Pi#7
# CITY      = Green Bank
# REGION    = West Virginia
# COUNTRY   = US
# TELTYPE   = Bubble Wrap  Horn
# FRAME     = TOPO
# GAIN1     = 17.0
# GAIN2     = 0.0
# GAIN3     = 0.0
# GAIN4     = 0.0
# Count     = 485621
# REFFREQ   = 1420405751.768
# OBSFREQ   = 1421500000.0
# OBSBW     = 6000000.0
# Duration  = 157.285896
# DeltaX    = 5859.375
# TSYS      = 200.0
# TRX       = 100.0
# TRMS      = 2.0
# TINT      = 1.0
# KPERC     = 100.0
# GAINFACT  = 1.0
# BUNIT     = Counts
# NCHAN     = 2048
# NSPEC     = 1
# NTIME     = 0
# NSAMPLES  = 0
# EPEAK     = 4.10875183718
# ERMS      = 0.995973393526
# EMJD      = 58568.808999981004 
# REFCHAN   = 1024.0
# REFSAMPL  = 256.0
# NAVE      = 485621
# NMEDIAN   = 1024
# Fft_rate  = 5000
# UTC       = 2021-12-08 21:14:02.148657
# SECONDS   =       0.0000000000 
# LST       = 01:23:11.769
# AZ        = 0.0
# EL        = -45.0
# TELLON    = -79:50:22.920
# TELLAT    = +38:25:59.160
# TELALT    = 0.0
# RA        = 20:52:00.120
# DEC       = +83:16:52.600
# GALLON    = 116:35:32.10
# GALLAT    = +23:36:49.40
# ALT_SUN   = +09:23:27.6
# AZ_SUN    = +230:51:15.5
# ETAA      = 0.8
# ETAB      = 0.99
# POLANGLE  = 0.0
# TELSIZEAM = 1.0
# TELSIZEBM = 1.0
# AST_VERS  = 5.0.1
# N  Frequency  Intensity 
#       (Hz)    (Counts) 
0000 1418500000 126.4725
0001 1418502929 134.1242
0002 1418505859 126.4725
0003 1418508789 147.2829
0004 1418511718 92.7622
0005 1418514648 198.6024
0006 1418517578 202.9651
0007 1418520507 112.8981
0008 1418523437 275.6472
0009 1418526367 176.1129
0010 1418529296 138.9091
0011 1418532226 267.2193
0012 1418535156 138.7307
0013 1418538085 157.3445
0014 1418541015 207.8033
0015 1418543945 131.1870
0016 1418546875 165.3776
0017 1418549804 169.3230
0018 1418552734 143.0151
0019 1418555664 164.1144
0020 1418558593 162.7178
0021 1418561523 161.9790
0022 1418564453 171.9982
0023 1418567382 179.6527
0024 1418570312 192.3678
0025 1418573242 199.0894
0026 1418576171 214.7406
0027 1418579101 260.1015
0028 1418582031 250.5958
0029 1418584960 368.0074
0030 1418587890 920.7663
0031 1418590820 468.0335
0032 1418593750 363.2477
0033 1418596679 407.9558
0034 1418599609 315.8528
0035 1418602539 326.0538
0036 1418605468 341.9451
0037 1418608398 355.4712
0038 1418611328 375.5051
0039 1418614257 394.7722
0040 1418617187 415.3622
0041 1418620117 438.4049
0042 1418623046 461.8802
0043 1418625976 488.5021
0044 1418628906 514.7508
0045 1418631835 543.5044
0046 1418634765 574.8102
0047 1418637695 606.2695
0048 1418640625 641.8629
0049 1418643554 680.1008
0050 1418646484 714.4052
0051 1418649414 758.8162
0052 1418652343 802.5584
0053 1418655273 846.1292
0054 1418658203 902.4415
0055 1418661132 954.8182
0056 1418664062 1002.5759
0057 1418666992 1080.5656
0058 1418669921 1134.8188
0059 1418672851 1202.9641
0060 1418675781 1369.3088
0061 1418678710 1392.0063
0062 1418681640 1633.7521
0063 1418684570 1941.3656
0064 1418687500 1638.3933
0065 1418690429 1659.6471
0066 1418693359 1756.9296
0067 1418696289 1848.8270
0068 1418699218 1951.0371
0069 1418702148 2070.6116
0070 1418705078 2183.8010
0071 1418708007 2303.3552
0072 1418710937 2427.6580
0073 1418713867 2565.5010
0074 1418716796 2713.2427
0075 1418719726 2858.5068
0076 1418722656 3025.9739
0077 1418725585 3190.9297
0078 1418728515 3359.5208
0079 1418731445 3543.3379
0080 1418734375 3742.1943
0081 1418737304 3939.9961
0082 1418740234 4154.8599
0083 1418743164 4379.2080
0084 1418746093 4615.6704
0085 1418749023 4860.8237
0086 1418751953 5109.3818
0087 1418754882 5393.8999
0088 1418757812 5666.7036
0089 1418760742 5949.0620
0090 1418763671 6303.6880
0091 1418766601 6600.7471
0092 1418769531 6979.4116
0093 1418772460 7419.6416
0094 1418775390 7672.6509
0095 1418778320 8041.8242
0096 1418781250 8442.8096
0097 1418784179 8854.8750
0098 1418787109 9301.0332
0099 1418790039 9745.5996
0100 1418792968 10241.8047
0101 1418795898 10726.4600
0102 1418798828 11254.3564
0103 1418801757 11784.2930
0104 1418804687 12334.2275
0105 1418807617 12944.4141
0106 1418810546 13555.4414
0107 1418813476 14196.9834
0108 1418816406 14895.5342
0109 1418819335 15539.8496
0110 1418822265 16280.0781
0111 1418825195 17063.2812
0112 1418828125 17858.5449
0113 1418831054 18776.2344
0114 1418833984 19619.7500
0115 1418836914 20390.7012
0116 1418839843 21179.3242
0117 1418842773 22074.2930
0118 1418845703 23010.1094
0119 1418848632 23977.5000
0120 1418851562 25013.3691
0121 1418854492 26133.3496
0122 1418857421 27243.4961
0123 1418860351 28429.5547
0124 1418863281 29597.8086
0125 1418866210 30794.4727
0126 1418869140 32122.4434
0127 1418872070 33415.9805
0128 1418875000 34819.9062
0129 1418877929 36260.9141
0130 1418880859 37546.5664
0131 1418883789 39445.4727
0132 1418886718 40926.7305
0133 1418889648 42202.3477
0134 1418892578 43846.9375
0135 1418895507 45588.6836
0136 1418898437 47203.8516
0137 1418901367 49058.4727
0138 1418904296 50822.8320
0139 1418907226 52991.6992
0140 1418910156 54877.8750
0141 1418913085 57012.8672
0142 1418916015 59074.2383
0143 1418918945 60977.8359
0144 1418921875 63304.9453
0145 1418924804 65564.9922
0146 1418927734 68070.3828
0147 1418930664 70825.7344
0148 1418933593 72788.7109
0149 1418936523 75279.3047
0150 1418939453 78153.1406
0151 1418942382 80708.9609
0152 1418945312 83681.4453
0153 1418948242 86361.9062
0154 1418951171 89044.6250
0155 1418954101 92072.0469
0156 1418957031 94909.3750
0157 1418959960 98139.5781
0158 1418962890 101383.6797
0159 1418965820 104429.0547
0160 1418968750 107732.4375
0161 1418971679 110899.3125
0162 1418974609 114472.7422
0163 1418977539 117917.1016
0164 1418980468 121729.9844
0165 1418983398 125624.2188
0166 1418986328 129103.8594
0167 1418989257 132967.9062
0168 1418992187 136999.2656
0169 1418995117 140579.8438
0170 1418998046 145331.8438
0171 1419000976 148844.0000
0172 1419003906 153268.9844
0173 1419006835 158607.9062
0174 1419009765 161794.0938
0175 1419012695 166288.3906
0176 1419015625 170420.2031
0177 1419018554 174927.0625
0178 1419021484 179608.6562
0179 1419024414 184378.3125
0180 1419027343 189761.9844
0181 1419030273 194577.4375
0182 1419033203 199001.0312
0183 1419036132 204514.7969
0184 1419039062 209211.9844
0185 1419041992 214182.5000
0186 1419044921 219167.1250
0187 1419047851 224376.7188
0188 1419050781 229837.5938
0189 1419053710 234853.1094
0190 1419056640 240525.4375
0191 1419059570 246528.8906
0192 1419062500 251057.6875
0193 1419065429 257947.3438
0194 1419068359 263947.0312
0195 1419071289 268336.3125
0196 1419074218 274338.8438
0197 1419077148 279337.4062
0198 1419080078 285374.6250
0199 1419083007 291485.0000
0200 1419085937 297284.1562
0201 1419088867 303078.0312
0202 1419091796 309375.0625
0203 1419094726 314820.2188
0204 1419097656 320781.5938
0205 1419100585 326203.9375
0206 1419103515 332687.2812
0207 1419106445 339164.6562
0208 1419109375 344790.1250
0209 1419112304 351623.8750
0210 1419115234 356992.3125
0211 1419118164 363867.9062
0212 1419121093 369438.2812
0213 1419124023 375349.3125
0214 1419126953 384718.2812
0215 1419129882 389590.7500
0216 1419132812 393392.3750
0217 1419135742 399969.9062
0218 1419138671 405969.3438
0219 1419141601 412142.1250
0220 1419144531 418222.5000
0221 1419147460 423226.4062
0222 1419150390 429893.3125
0223 1419153320 435943.8125
0224 1419156250 442160.3125
0225 1419159179 448481.7188
0226 1419162109 453351.4062
0227 1419165039 460253.8438
0228 1419167968 466261.7500
0229 1419170898 471876.0312
0230 1419173828 478028.2188
0231 1419176757 483562.8438
0232 1419179687 490152.2500
0233 1419182617 494949.6250
0234 1419185546 500049.0938
0235 1419188476 507391.9375
0236 1419191406 512341.4375
0237 1419194335 515372.7500
0238 1419197265 521837.2812
0239 1419200195 527462.7500
0240 1419203125 532523.7500
0241 1419206054 537694.1875
0242 1419208984 543673.9375
0243 1419211914 549369.3750
0244 1419214843 553842.4375
0245 1419217773 558917.4375
0246 1419220703 563666.5625
0247 1419223632 567987.4375
0248 1419226562 573507.2500
0249 1419229492 576712.1250
0250 1419232421 582624.6250
0251 1419235351 587926.6875
0252 1419238281 591562.0625
0253 1419241210 597785.1250
0254 1419244140 601388.9375
0255 1419247070 608758.8125
0256 1419250000 617623.4375
0257 1419252929 612845.1250
0258 1419255859 617220.0625
0259 1419258789 621584.3750
0260 1419261718 625479.3125
0261 1419264648 630545.3750
0262 1419267578 633342.2500
0263 1419270507 636227.5625
0264 1419273437 640491.1875
0265 1419276367 644184.9375
0266 1419279296 650168.0000
0267 1419282226 652234.9375
0268 1419285156 653769.3750
0269 1419288085 657519.2500
0270 1419291015 661691.0625
0271 1419293945 664894.9375
0272 1419296875 667686.0625
0273 1419299804 672996.2500
0274 1419302734 674429.0625
0275 1419305664 676127.8750
0276 1419308593 682123.5000
0277 1419311523 683520.9375
0278 1419314453 683756.8750
0279 1419317382 686902.2500
0280 1419320312 689488.5000
0281 1419323242 692337.1875
0282 1419326171 695082.6875
0283 1419329101 697103.6250
0284 1419332031 701238.8125
0285 1419334960 701882.1875
0286 1419337890 703931.0625
0287 1419340820 707106.5000
0288 1419343750 706898.6875
0289 1419346679 708799.3750
0290 1419349609 711834.6250
0291 1419352539 713275.3750
0292 1419355468 716430.5000
0293 1419358398 716502.9375
0294 1419361328 718526.3750
0295 1419364257 721132.8750
0296 1419367187 721864.3750
0297 1419370117 731489.0000
0298 1419373046 726988.1875
0299 1419375976 726108.6875
0300 1419378906 728652.3125
0301 1419381835 728134.8750
0302 1419384765 731848.1875
0303 1419387695 730619.0625
0304 1419390625 732696.5000
0305 1419393554 734343.8750
0306 1419396484 735575.5625
0307 1419399414 736963.3750
0308 1419402343 737793.7500
0309 1419405273 736157.3750
0310 1419408203 738317.6250
0311 1419411132 738409.8750
0312 1419414062 741345.6250
0313 1419416992 741178.5000
0314 1419419921 741310.2500
0315 1419422851 744508.0625
0316 1419425781 742374.4375
0317 1419428710 744074.6875
0318 1419431640 746317.6250
0319 1419434570 744445.6875
0320 1419437500 745789.1250
0321 1419440429 745624.5000
0322 1419443359 744893.8750
0323 1419446289 746483.8750
0324 1419449218 747139.2500
0325 1419452148 746522.4375
0326 1419455078 747779.0625
0327 1419458007 747041.4375
0328 1419460937 749359.3750
0329 1419463867 750106.9375
0330 1419466796 749249.1875
0331 1419469726 748671.6875
0332 1419472656 749091.3125
0333 1419475585 749021.0625
0334 1419478515 748889.1875
0335 1419481445 747930.5000
0336 1419484375 749857.9375
0337 1419487304 750175.7500
0338 1419490234 749894.1250
0339 1419493164 751915.1875
0340 1419496093 749342.0625
0341 1419499023 749325.0000
0342 1419501953 749708.2500
0343 1419504882 749776.0625
0344 1419507812 749101.6250
0345 1419510742 749677.3750
0346 1419513671 750946.6875
0347 1419516601 749933.5000
0348 1419519531 748755.0000
0349 1419522460 748300.1875
0350 1419525390 747838.8125
0351 1419528320 748749.2500
0352 1419531250 747653.2500
0353 1419534179 749590.8750
0354 1419537109 750282.1875
0355 1419540039 748299.3750
0356 1419542968 749322.8750
0357 1419545898 751552.6875
0358 1419548828 748413.4375
0359 1419551757 753340.6875
0360 1419554687 750074.4375
0361 1419557617 746500.3125
0362 1419560546 748180.4375
0363 1419563476 746059.9375
0364 1419566406 745244.1875
0365 1419569335 746252.8750
0366 1419572265 746540.0625
0367 1419575195 745419.1875
0368 1419578125 746869.5000
0369 1419581054 745648.6250
0370 1419583984 747969.6875
0371 1419586914 746537.8750
0372 1419589843 746306.0625
0373 1419592773 744139.8750
0374 1419595703 743846.8125
0375 1419598632 743621.8125
0376 1419601562 743423.6250
0377 1419604492 743234.6875
0378 1419607421 742490.8750
0379 1419610351 743107.6250
0380 1419613281 743917.3750
0381 1419616210 741971.1875
0382 1419619140 740684.7500
0383 1419622070 741488.3750
0384 1419625000 740744.1875
0385 1419627929 741250.9375
0386 1419630859 740920.4375
0387 1419633789 738828.8125
0388 1419636718 739662.8750
0389 1419639648 738625.7500
0390 1419642578 739729.9375
0391 1419645507 739534.4375
0392 1419648437 737807.4375
0393 1419651367 739398.9375
0394 1419654296 736881.6875
0395 1419657226 738739.8125
0396 1419660156 739045.9375
0397 1419663085 736971.0625
0398 1419666015 738898.3125
0399 1419668945 736306.1250
0400 1419671875 737682.1875
0401 1419674804 739822.1875
0402 1419677734 735715.3750
0403 1419680664 735235.6875
0404 1419683593 735253.3750
0405 1419686523 733780.3125
0406 1419689453 733799.6250
0407 1419692382 732876.6250
0408 1419695312 732397.1875
0409 1419698242 733758.7500
0410 1419701171 731850.1875
0411 1419704101 735105.1250
0412 1419707031 733620.7500
0413 1419709960 732077.5625
0414 1419712890 732182.5000
0415 1419715820 730699.1875
0416 1419718750 730138.6875
0417 1419721679 730643.3125
0418 1419724609 730909.1875
0419 1419727539 734219.8125
0420 1419730468 731451.6875
0421 1419733398 734456.3750
0422 1419736328 732786.3125
0423 1419739257 728827.1250
0424 1419742187 728528.3125
0425 1419745117 728096.6875
0426 1419748046 728230.8750
0427 1419750976 728894.9375
0428 1419753906 728034.9375
0429 1419756835 730270.3750
0430 1419759765 727727.6875
0431 1419762695 727776.6250
0432 1419765625 729139.8750
0433 1419768554 726789.3125
0434 1419771484 726492.4375
0435 1419774414 727405.8125
0436 1419777343 727844.5000
0437 1419780273 728098.3125
0438 1419783203 725726.5000
0439 1419786132 725037.0625
0440 1419789062 724551.9375
0441 1419791992 726961.8750
0442 1419794921 728593.8125
0443 1419797851 727434.0625
0444 1419800781 725403.6250
0445 1419803710 727470.4375
0446 1419806640 725073.5000
0447 1419809570 725273.5000
0448 1419812500 725524.7500
0449 1419815429 724684.2500
0450 1419818359 725517.0625
0451 1419821289 723907.7500
0452 1419824218 724587.8750
0453 1419827148 724281.5000
0454 1419830078 722371.1875
0455 1419833007 725664.7500
0456 1419835937 724077.2500
0457 1419838867 725516.6250
0458 1419841796 725486.5625
0459 1419844726 723815.1250
0460 1419847656 725519.2500
0461 1419850585 725445.4375
0462 1419853515 726259.4375
0463 1419856445 731671.5625
0464 1419859375 723303.6875
0465 1419862304 724020.9375
0466 1419865234 723631.0625
0467 1419868164 724772.2500
0468 1419871093 723835.4375
0469 1419874023 722329.0000
0470 1419876953 723149.8750
0471 1419879882 723308.5000
0472 1419882812 723588.5625
0473 1419885742 725537.3125
0474 1419888671 724357.7500
0475 1419891601 723058.3125
0476 1419894531 723676.5000
0477 1419897460 723020.0625
0478 1419900390 723633.5625
0479 1419903320 721902.4375
0480 1419906250 721563.2500
0481 1419909179 720979.8125
0482 1419912109 720844.5625
0483 1419915039 722610.3750
0484 1419917968 723517.0000
0485 1419920898 721227.0000
0486 1419923828 722428.2500
0487 1419926757 721935.3750
0488 1419929687 721219.4375
0489 1419932617 722564.5000
0490 1419935546 723026.8750
0491 1419938476 723209.4375
0492 1419941406 723222.1875
0493 1419944335 721771.6250
0494 1419947265 722092.6875
0495 1419950195 722933.1250
0496 1419953125 721575.6250
0497 1419956054 722100.3125
0498 1419958984 722278.6875
0499 1419961914 723958.0000
0500 1419964843 721298.4375
0501 1419967773 723540.9375
0502 1419970703 723606.0000
0503 1419973632 722695.7500
0504 1419976562 730286.8750
0505 1419979492 728268.8750
0506 1419982421 721891.5625
0507 1419985351 722776.0000
0508 1419988281 722405.8750
0509 1419991210 723613.7500
0510 1419994140 724253.5000
0511 1419997070 723021.5625
0512 1420000000 723608.8750
0513 1420002929 723126.5000
0514 1420005859 723365.3125
0515 1420008789 723866.5625
0516 1420011718 723644.3750
0517 1420014648 724201.6875
0518 1420017578 723258.9375
0519 1420020507 723446.6250
0520 1420023437 722136.0000
0521 1420026367 724416.8125
0522 1420029296 722814.8750
0523 1420032226 722855.6250
0524 1420035156 723302.3750
0525 1420038085 726058.6875
0526 1420041015 724395.9375
0527 1420043945 724677.7500
0528 1420046875 723755.0000
0529 1420049804 723679.7500
0530 1420052734 725394.8125
0531 1420055664 724832.3750
0532 1420058593 724878.4375
0533 1420061523 725209.3125
0534 1420064453 726118.8750
0535 1420067382 725769.1250
0536 1420070312 724385.6250
0537 1420073242 726687.9375
0538 1420076171 727431.3125
0539 1420079101 725050.4375
0540 1420082031 725876.3750
0541 1420084960 725907.0625
0542 1420087890 724724.3125
0543 1420090820 726708.4375
0544 1420093750 727298.9375
0545 1420096679 729942.0000
0546 1420099609 732347.0000
0547 1420102539 725550.6875
0548 1420105468 726008.0625
0549 1420108398 725656.7500
0550 1420111328 726409.1250
0551 1420114257 727576.3125
0552 1420117187 728453.0625
0553 1420120117 727738.1250
0554 1420123046 727242.3750
0555 1420125976 727894.8125
0556 1420128906 728279.4375
0557 1420131835 727509.5625
0558 1420134765 726656.5625
0559 1420137695 726764.5625
0560 1420140625 727797.5625
0561 1420143554 729991.9375
0562 1420146484 729111.1250
0563 1420149414 728887.7500
0564 1420152343 730772.5625
0565 1420155273 729301.3750
0566 1420158203 733056.1250
0567 1420161132 733512.4375
0568 1420164062 730210.5000
0569 1420166992 731084.8750
0570 1420169921 730344.7500
0571 1420172851 731070.2500
0572 1420175781 731823.1875
0573 1420178710 730509.8750
0574 1420181640 731648.6250
0575 1420184570 730591.5000
0576 1420187500 731287.1250
0577 1420190429 732815.3750
0578 1420193359 730808.2500
0579 1420196289 730666.6250
0580 1420199218 731331.3125
0581 1420202148 733289.6875
0582 1420205078 732674.6875
0583 1420208007 732225.3125
0584 1420210937 732574.1250
0585 1420213867 733026.3750
0586 1420216796 731943.6250
0587 1420219726 737176.7500
0588 1420222656 734260.0625
0589 1420225585 733614.6875
0590 1420228515 732846.7500
0591 1420231445 732528.3125
0592 1420234375 735196.5000
0593 1420237304 735704.1875
0594 1420240234 734033.6250
0595 1420243164 735610.6875
0596 1420246093 733318.8750
0597 1420249023 736817.1250
0598 1420251953 736810.8750
0599 1420254882 735010.0625
0600 1420257812 734535.4375
0601 1420260742 734905.9375
0602 1420263671 735734.4375
0603 1420266601 735527.1250
0604 1420269531 736031.6250
0605 1420272460 736147.5625
0606 1420275390 737446.4375
0607 1420278320 736765.1250
0608 1420281250 741300.8125
0609 1420284179 736992.6875
0610 1420287109 736858.7500
0611 1420290039 738224.3125
0612 1420292968 737810.3750
0613 1420295898 736958.1875
0614 1420298828 737046.6875
0615 1420301757 738933.5625
0616 1420304687 738981.5625
0617 1420307617 738158.9375
0618 1420310546 740216.1250
0619 1420313476 740209.2500
0620 1420316406 738573.5625
0621 1420319335 739765.3750
0622 1420322265 739094.5625
0623 1420325195 741047.5625
0624 1420328125 740426.7500
0625 1420331054 739518.1250
0626 1420333984 741617.3125
0627 1420336914 740821.2500
0628 1420339843 741042.6250
0629 1420342773 741369.0000
0630 1420345703 740212.1875
0631 1420348632 741284.5000
0632 1420351562 740395.6875
0633 1420354492 741327.4375
0634 1420357421 740044.0000
0635 1420360351 740807.0625
0636 1420363281 741987.2500
0637 1420366210 741851.8125
0638 1420369140 740579.8750
0639 1420372070 740648.3750
0640 1420375000 741715.6875
0641 1420377929 741882.2500
0642 1420380859 741326.6875
0643 1420383789 741036.6875
0644 1420386718 742040.4375
0645 1420389648 742944.3125
0646 1420392578 744705.5625
0647 1420395507 744872.8125
0648 1420398437 742247.4375
0649 1420401367 748228.8750
0650 1420404296 745442.3750
0651 1420407226 742820.1875
0652 1420410156 744065.8750
0653 1420413085 742167.3750
0654 1420416015 744067.8750
0655 1420418945 742278.5000
0656 1420421875 742596.8750
0657 1420424804 743990.0000
0658 1420427734 743533.2500
0659 1420430664 744933.8125
0660 1420433593 746513.1250
0661 1420436523 745757.8750
0662 1420439453 744690.8125
0663 1420442382 742560.6250
0664 1420445312 744208.9375
0665 1420448242 745187.8750
0666 1420451171 743991.5625
0667 1420454101 745192.6250
0668 1420457031 743988.6875
0669 1420459960 744268.0625
0670 1420462890 749959.0000
