# File: 20-05-29T170633.ast
# NOTEA     = None Attached.  RTLSDR Dongle Test
# NOTEB     = Spectral Integration
# OBSERVER  = Science Aficionado
# DEVICE    = rtl=0,bias=1
# DATADIR   = ../data/
# SITE      = Small Metal Horn - NeSDR Test
# CITY      = Green Bank
# REGION    = West Virginia
# COUNTRY   = US
# TELTYPE   = Bubble Wrap  Horn
# FRAME     = TOPO
# GAIN1     = 40.0
# GAIN2     = 11.0
# GAIN3     = 11.0
# GAIN4     = 0.0
# Count     = 2500
# CenterFreq= 1420000000.0
# Bandwidth = 3000000.0
# Duration  = 21.86013
# DeltaX    = 5859.375
# TSYS      = 200.0
# TRX       = 100.0
# TRMS      = 2.0
# TINT      = 1.0
# KPERC     = 100.0
# GAINFACT  = 1.0
# BUNIT     = Counts
# NCHAN     = 1024
# NSPEC     = 1
# NTIME     = 0
# NSAMPLES  = 0
# EPEAK     = 4.10875183718
# ERMS      = 0.995973393526
# EMJD      = 58568.808999981004 
# REFCHAN   = 512.0
# REFSAMPL  = 256.0
# NAVE      = 50
# NMEDIAN   = 1024
# Fft_rate  = 5000
# UTC       = 2020-05-29 17:06:33.646600
# SECONDS   =       0.0000000000 
# LST       = 04:17:55.650
# AZ        = 180.0
# EL        = 90.0
# TELLON    = -79:50:22.920
# TELLAT    = +38:25:59.160
# RA        = 04:15:14.390
# DEC       = +38:20:09.400
# GALLON    = 161:00:53.60
# GALLAT    = -09:01:49.90
# ALT_SUN   = +73:11:14.2
# AZ_SUN    = +171:41:33.4
# ETAA      = 0.8
# ETAB      = 0.99
# POLANGLE  = 0.0
# TELSIZEAM = 1.0
# TELSIZEBM = 1.0
# AST_VERS  = 05.01
0000 1418501464 14.9037
0001 1418504394 15.1415
0002 1418507324 15.0778
0003 1418510253 15.3523
0004 1418513183 15.2133
0005 1418516113 15.0989
0006 1418519042 15.0386
0007 1418521972 14.9909
0008 1418524902 15.1317
0009 1418527832 15.1764
0010 1418530761 15.1155
0011 1418533691 15.2077
0012 1418536621 15.3853
0013 1418539550 15.4873
0014 1418542480 15.4628
0015 1418545410 15.6327
0016 1418548339 15.7405
0017 1418551269 15.8369
0018 1418554199 15.9934
0019 1418557128 15.8746
0020 1418560058 16.0723
0021 1418562988 16.1477
0022 1418565917 16.4539
0023 1418568847 16.6081
0024 1418571777 16.4360
0025 1418574707 16.9071
0026 1418577636 17.1377
0027 1418580566 17.2005
0028 1418583496 17.3333
0029 1418586425 17.5160
0030 1418589355 17.7893
0031 1418592285 18.1553
0032 1418595214 18.2410
0033 1418598144 18.3089
0034 1418601074 18.7222
0035 1418604003 19.0174
0036 1418606933 19.1074
0037 1418609863 19.4462
0038 1418612792 19.3896
0039 1418615722 19.9494
0040 1418618652 20.2575
0041 1418621582 20.5067
0042 1418624511 21.0278
0043 1418627441 21.4085
0044 1418630371 21.1223
0045 1418633300 21.5479
0046 1418636230 22.2260
0047 1418639160 22.3477
0048 1418642089 22.5554
0049 1418645019 22.8463
0050 1418647949 23.2191
0051 1418650878 23.6944
0052 1418653808 24.1052
0053 1418656738 24.3422
0054 1418659667 24.2803
0055 1418662597 25.2236
0056 1418665527 25.5138
0057 1418668457 25.8362
0058 1418671386 26.2503
0059 1418674316 26.7058
0060 1418677246 27.0668
0061 1418680175 27.2200
0062 1418683105 28.2262
0063 1418686035 28.3714
0064 1418688964 28.8771
0065 1418691894 29.4016
0066 1418694824 29.4797
0067 1418697753 30.2005
0068 1418700683 30.5109
0069 1418703613 31.3060
0070 1418706542 31.3107
0071 1418709472 32.0418
0072 1418712402 32.4471
0073 1418715332 33.0917
0074 1418718261 32.9130
0075 1418721191 33.4497
0076 1418724121 34.2721
0077 1418727050 35.0747
0078 1418729980 35.4222
0079 1418732910 35.7039
0080 1418735839 35.8756
0081 1418738769 36.7752
0082 1418741699 37.2036
0083 1418744628 37.6907
0084 1418747558 38.5658
0085 1418750488 38.6993
0086 1418753417 39.2362
0087 1418756347 39.3671
0088 1418759277 40.1459
0089 1418762207 41.1274
0090 1418765136 41.0748
0091 1418768066 41.9808
0092 1418770996 42.5395
0093 1418773925 43.3228
0094 1418776855 43.2480
0095 1418779785 44.3771
0096 1418782714 44.4775
0097 1418785644 45.5483
0098 1418788574 45.3848
0099 1418791503 45.8823
0100 1418794433 46.8108
0101 1418797363 46.9912
0102 1418800292 47.6011
0103 1418803222 48.8485
0104 1418806152 49.5688
0105 1418809082 49.5014
0106 1418812011 50.0978
0107 1418814941 50.6919
0108 1418817871 51.6335
0109 1418820800 52.7131
0110 1418823730 52.9286
0111 1418826660 53.5409
0112 1418829589 53.7376
0113 1418832519 53.8532
0114 1418835449 54.8080
0115 1418838378 54.8166
0116 1418841308 55.7529
0117 1418844238 56.2181
0118 1418847167 55.9782
0119 1418850097 57.8176
0120 1418853027 57.7312
0121 1418855957 58.9810
0122 1418858886 60.4438
0123 1418861816 60.1063
0124 1418864746 60.1253
0125 1418867675 62.1341
0126 1418870605 61.7359
0127 1418873535 62.0042
0128 1418876464 63.0550
0129 1418879394 62.7766
0130 1418882324 65.2968
0131 1418885253 64.3795
0132 1418888183 65.5473
0133 1418891113 66.0836
0134 1418894042 66.2640
0135 1418896972 66.7935
0136 1418899902 67.3161
0137 1418902832 67.6604
0138 1418905761 68.9618
0139 1418908691 69.8062
0140 1418911621 70.1516
0141 1418914550 70.3487
0142 1418917480 69.4767
0143 1418920410 71.2215
0144 1418923339 71.9215
0145 1418926269 72.8386
0146 1418929199 72.4986
0147 1418932128 72.4712
0148 1418935058 74.1729
0149 1418937988 73.8890
0150 1418940917 74.5913
0151 1418943847 75.6096
0152 1418946777 76.2917
0153 1418949707 76.6835
0154 1418952636 76.5520
0155 1418955566 77.1664
0156 1418958496 79.1852
0157 1418961425 79.6709
0158 1418964355 79.5314
0159 1418967285 78.7879
0160 1418970214 79.9610
0161 1418973144 80.0282
0162 1418976074 81.1939
0163 1418979003 81.4672
0164 1418981933 80.0210
0165 1418984863 82.3022
0166 1418987792 82.6202
0167 1418990722 82.5155
0168 1418993652 84.6956
0169 1418996582 83.6789
0170 1418999511 84.6623
0171 1419002441 85.1420
0172 1419005371 85.7799
0173 1419008300 85.5891
0174 1419011230 86.6612
0175 1419014160 86.6214
0176 1419017089 88.1454
0177 1419020019 87.3086
0178 1419022949 87.7685
0179 1419025878 89.0900
0180 1419028808 89.4372
0181 1419031738 88.6639
0182 1419034667 88.6865
0183 1419037597 89.7876
0184 1419040527 89.4171
0185 1419043457 90.0921
0186 1419046386 91.8039
0187 1419049316 91.6909
0188 1419052246 91.2349
0189 1419055175 92.9745
0190 1419058105 92.7700
0191 1419061035 94.0835
0192 1419063964 93.7253
0193 1419066894 94.6554
0194 1419069824 93.8578
0195 1419072753 93.5639
0196 1419075683 95.6654
0197 1419078613 95.4188
0198 1419081542 95.6273
0199 1419084472 95.7087
0200 1419087402 94.7533
0201 1419090332 94.8743
0202 1419093261 96.1806
0203 1419096191 96.4982
0204 1419099121 97.2077
0205 1419102050 96.5083
0206 1419104980 97.4672
0207 1419107910 97.4386
0208 1419110839 98.0219
0209 1419113769 98.4827
0210 1419116699 99.5395
0211 1419119628 98.7398
0212 1419122558 101.0757
0213 1419125488 99.5298
0214 1419128417 99.4991
0215 1419131347 99.8136
0216 1419134277 98.9775
0217 1419137207 100.1612
0218 1419140136 100.6816
0219 1419143066 101.0275
0220 1419145996 99.5258
0221 1419148925 101.3137
0222 1419151855 102.1441
0223 1419154785 101.6065
0224 1419157714 102.1999
0225 1419160644 102.3186
0226 1419163574 100.4587
0227 1419166503 102.2885
0228 1419169433 101.8510
0229 1419172363 103.3259
0230 1419175292 102.7833
0231 1419178222 103.5879
0232 1419181152 102.7259
0233 1419184082 103.6689
0234 1419187011 102.1139
0235 1419189941 104.9072
0236 1419192871 104.2336
0237 1419195800 103.5660
0238 1419198730 104.4176
0239 1419201660 104.5294
0240 1419204589 103.0391
0241 1419207519 103.4178
0242 1419210449 103.0258
0243 1419213378 103.8636
0244 1419216308 105.0005
0245 1419219238 105.7806
0246 1419222167 104.6653
0247 1419225097 104.3129
0248 1419228027 104.2827
0249 1419230957 104.7602
0250 1419233886 104.8716
0251 1419236816 106.8909
0252 1419239746 106.2321
0253 1419242675 106.1405
0254 1419245605 106.1553
0255 1419248535 105.2653
0256 1419251464 105.8617
0257 1419254394 105.9421
0258 1419257324 106.8654
0259 1419260253 107.3156
0260 1419263183 106.4459
0261 1419266113 108.6255
0262 1419269042 105.8382
0263 1419271972 107.1289
0264 1419274902 106.2276
0265 1419277832 107.1282
0266 1419280761 107.1072
0267 1419283691 106.9412
0268 1419286621 108.1996
0269 1419289550 107.4518
0270 1419292480 106.8728
0271 1419295410 106.6219
0272 1419298339 107.8067
0273 1419301269 107.1903
0274 1419304199 107.4771
0275 1419307128 108.2529
0276 1419310058 109.2708
0277 1419312988 107.5042
0278 1419315917 108.6485
0279 1419318847 108.1872
0280 1419321777 107.8012
0281 1419324707 107.9572
0282 1419327636 109.7990
0283 1419330566 108.9397
0284 1419333496 108.1364
0285 1419336425 109.1066
0286 1419339355 108.4996
0287 1419342285 109.2257
0288 1419345214 108.7628
0289 1419348144 107.6415
0290 1419351074 108.9656
0291 1419354003 109.7055
0292 1419356933 109.0906
0293 1419359863 107.0035
0294 1419362792 108.3368
0295 1419365722 107.9223
0296 1419368652 108.2571
0297 1419371582 108.5167
0298 1419374511 109.5414
0299 1419377441 108.9945
0300 1419380371 108.4872
0301 1419383300 107.5488
0302 1419386230 108.0702
0303 1419389160 109.2475
0304 1419392089 109.8096
0305 1419395019 110.3612
0306 1419397949 111.6354
0307 1419400878 110.8885
0308 1419403808 109.9580
0309 1419406738 109.8856
0310 1419409667 109.6085
0311 1419412597 109.7880
0312 1419415527 110.8569
0313 1419418457 109.0957
0314 1419421386 109.0774
0315 1419424316 110.0532
0316 1419427246 110.7811
0317 1419430175 110.9056
0318 1419433105 110.9672
0319 1419436035 112.3033
0320 1419438964 111.7009
0321 1419441894 109.9409
0322 1419444824 111.9830
0323 1419447753 111.8851
0324 1419450683 110.8237
0325 1419453613 112.1276
0326 1419456542 112.4359
0327 1419459472 111.7871
0328 1419462402 112.6245
0329 1419465332 111.7642
0330 1419468261 113.9575
0331 1419471191 113.4069
0332 1419474121 112.5915
0333 1419477050 111.1666
0334 1419479980 114.2306
0335 1419482910 114.2467
0336 1419485839 114.3547
0337 1419488769 112.8885
0338 1419491699 113.7703
0339 1419494628 115.4494
0340 1419497558 113.3331
0341 1419500488 113.9082
0342 1419503417 114.8528
0343 1419506347 114.1068
0344 1419509277 114.2848
0345 1419512207 112.4364
0346 1419515136 114.5387
0347 1419518066 115.5579
0348 1419520996 115.2094
0349 1419523925 115.6378
0350 1419526855 114.4523
0351 1419529785 115.9203
0352 1419532714 115.6234
0353 1419535644 116.4873
0354 1419538574 117.4127
0355 1419541503 116.2913
0356 1419544433 116.5747
0357 1419547363 114.9919
0358 1419550292 116.3741
0359 1419553222 117.7979
0360 1419556152 116.7294
0361 1419559082 117.2564
0362 1419562011 118.0472
0363 1419564941 117.4297
0364 1419567871 117.2879
0365 1419570800 117.5524
0366 1419573730 118.1559
0367 1419576660 118.9687
0368 1419579589 119.1274
0369 1419582519 118.5444
0370 1419585449 119.2871
0371 1419588378 118.5631
0372 1419591308 119.0326
0373 1419594238 121.2657
0374 1419597167 121.0397
0375 1419600097 119.9484
0376 1419603027 120.1467
0377 1419605957 120.9710
0378 1419608886 120.0946
0379 1419611816 122.9943
0380 1419614746 122.7617
0381 1419617675 120.3592
0382 1419620605 120.7401
0383 1419623535 122.0132
0384 1419626464 123.9157
0385 1419629394 123.2097
0386 1419632324 123.0421
0387 1419635253 124.1333
0388 1419638183 124.7380
0389 1419641113 123.2529
0390 1419644042 123.1771
0391 1419646972 123.2550
0392 1419649902 124.0319
0393 1419652832 124.2299
0394 1419655761 128.3828
0395 1419658691 127.1975
0396 1419661621 125.5124
0397 1419664550 127.6834
0398 1419667480 126.4633
0399 1419670410 125.5172
0400 1419673339 125.9649
0401 1419676269 127.3467
0402 1419679199 127.2531
0403 1419682128 127.5993
0404 1419685058 127.3918
0405 1419687988 128.8126
0406 1419690917 128.6541
0407 1419693847 127.0753
0408 1419696777 129.1220
0409 1419699707 129.5084
0410 1419702636 128.6993
0411 1419705566 132.0075
0412 1419708496 131.1016
0413 1419711425 129.3239
0414 1419714355 131.0085
0415 1419717285 130.7538
0416 1419720214 131.1620
0417 1419723144 133.3365
0418 1419726074 132.5665
0419 1419729003 131.3089
0420 1419731933 131.8417
0421 1419734863 131.6846
0422 1419737792 132.4586
0423 1419740722 131.7049
0424 1419743652 134.7752
0425 1419746582 131.7696
0426 1419749511 131.9691
0427 1419752441 134.8574
0428 1419755371 134.1429
0429 1419758300 134.3122
0430 1419761230 135.1332
0431 1419764160 135.6234
0432 1419767089 134.3717
0433 1419770019 133.9875
0434 1419772949 133.8310
0435 1419775878 136.1770
0436 1419778808 135.6631
0437 1419781738 136.0444
0438 1419784667 135.6919
0439 1419787597 137.0635
0440 1419790527 135.2146
0441 1419793457 137.3875
0442 1419796386 139.4150
0443 1419799316 138.5340
0444 1419802246 139.6216
0445 1419805175 139.0202
0446 1419808105 139.3775
0447 1419811035 140.0134
0448 1419813964 138.5569
0449 1419816894 138.4274
0450 1419819824 138.2742
0451 1419822753 137.3495
0452 1419825683 139.5811
0453 1419828613 140.3793
0454 1419831542 138.7520
0455 1419834472 141.5320
0456 1419837402 140.9533
0457 1419840332 142.5352
0458 1419843261 139.6391
0459 1419846191 144.1922
0460 1419849121 142.7641
0461 1419852050 141.8278
0462 1419854980 141.1995
0463 1419857910 141.5136
0464 1419860839 141.1983
0465 1419863769 143.2119
0466 1419866699 143.2927
0467 1419869628 143.8589
0468 1419872558 144.9870
0469 1419875488 145.0452
0470 1419878417 144.0824
0471 1419881347 145.0870
0472 1419884277 143.8220
0473 1419887207 145.7956
0474 1419890136 146.6789
0475 1419893066 144.7857
0476 1419895996 145.7444
0477 1419898925 145.7002
0478 1419901855 145.8950
0479 1419904785 146.9988
0480 1419907714 148.5799
0481 1419910644 146.7356
0482 1419913574 147.1844
0483 1419916503 149.0356
0484 1419919433 145.5972
0485 1419922363 147.3238
0486 1419925292 150.0982
0487 1419928222 149.0875
0488 1419931152 146.9035
0489 1419934082 150.2671
0490 1419937011 151.2800
0491 1419939941 148.9476
0492 1419942871 150.2226
0493 1419945800 151.0137
0494 1419948730 150.8818
0495 1419951660 149.3214
0496 1419954589 151.0400
0497 1419957519 151.1312
0498 1419960449 151.3100
0499 1419963378 152.8839
0500 1419966308 154.4809
0501 1419969238 152.2456
0502 1419972167 152.5181
0503 1419975097 154.5331
0504 1419978027 154.8305
0505 1419980957 155.8657
0506 1419983886 157.6390
0507 1419986816 158.3325
0508 1419989746 159.6328
0509 1419992675 161.8203
0510 1419995605 169.7929
0511 1419998535 196.4018
0512 1420001464 247.5540
0513 1420004394 194.6934
0514 1420007324 172.1496
0515 1420010253 164.9161
0516 1420013183 158.6033
0517 1420016113 159.0101
0518 1420019042 155.1445
0519 1420021972 157.2649
0520 1420024902 154.8492
0521 1420027832 155.0205
0522 1420030761 154.8030
0523 1420033691 152.8779
0524 1420036621 153.1468
0525 1420039550 153.7801
0526 1420042480 151.7509
0527 1420045410 153.3902
0528 1420048339 153.0807
0529 1420051269 151.4610
0530 1420054199 151.7157
0531 1420057128 151.5902
0532 1420060058 151.4005
0533 1420062988 152.4619
0534 1420065917 153.5465
0535 1420068847 150.6442
0536 1420071777 151.0325
0537 1420074707 151.9504
0538 1420077636 151.9965
0539 1420080566 149.7231
0540 1420083496 150.3330
0541 1420086425 149.4346
0542 1420089355 148.3956
0543 1420092285 149.5499
0544 1420095214 149.9537
0545 1420098144 148.9863
0546 1420101074 149.6692
0547 1420104003 149.1838
0548 1420106933 148.3439
0549 1420109863 151.9552
0550 1420112792 147.2025
0551 1420115722 148.5405
0552 1420118652 148.8269
0553 1420121582 148.1289
0554 1420124511 149.4804
0555 1420127441 149.4661
0556 1420130371 150.0659
0557 1420133300 149.4708
0558 1420136230 148.0889
0559 1420139160 149.0932
0560 1420142089 148.5744
0561 1420145019 148.3345
0562 1420147949 148.5116
0563 1420150878 148.6208
0564 1420153808 147.8086
0565 1420156738 146.6645
0566 1420159667 149.9789
0567 1420162597 148.7737
0568 1420165527 147.6993
0569 1420168457 147.7138
0570 1420171386 147.4659
0571 1420174316 147.4821
0572 1420177246 147.9036
0573 1420180175 145.6752
0574 1420183105 146.0024
0575 1420186035 146.6110
0576 1420188964 147.8089
0577 1420191894 144.8289
0578 1420194824 147.0878
0579 1420197753 148.4175
0580 1420200683 148.1619
0581 1420203613 148.2799
0582 1420206542 145.6679
0583 1420209472 147.9464
0584 1420212402 148.9732
0585 1420215332 149.1537
0586 1420218261 148.4817
0587 1420221191 148.0733
0588 1420224121 148.4982
0589 1420227050 146.4415
0590 1420229980 150.0780
0591 1420232910 148.5320
0592 1420235839 147.8743
0593 1420238769 147.7346
0594 1420241699 147.2721
0595 1420244628 148.0831
0596 1420247558 148.9449
0597 1420250488 146.3358
0598 1420253417 147.2632
0599 1420256347 148.9515
0600 1420259277 150.1730
0601 1420262207 148.2960
0602 1420265136 148.9874
0603 1420268066 148.4211
0604 1420270996 149.3440
0605 1420273925 149.5858
0606 1420276855 149.8291
0607 1420279785 153.2451
0608 1420282714 152.6883
0609 1420285644 151.2153
0610 1420288574 151.6737
0611 1420291503 150.8150
0612 1420294433 151.5027
0613 1420297363 151.6806
0614 1420300292 151.4940
0615 1420303222 149.4763
0616 1420306152 151.5758
0617 1420309082 151.5637
0618 1420312011 151.8030
0619 1420314941 152.3770
0620 1420317871 150.8133
0621 1420320800 152.5927
0622 1420323730 149.5205
0623 1420326660 149.9940
0624 1420329589 152.8762
0625 1420332519 152.5002
0626 1420335449 149.9805
0627 1420338378 152.1913
0628 1420341308 152.0102
0629 1420344238 149.7977
0630 1420347167 151.3837
0631 1420350097 149.9930
0632 1420353027 150.8179
0633 1420355957 150.4102
0634 1420358886 150.5361
0635 1420361816 150.9412
0636 1420364746 149.4978
0637 1420367675 149.8415
0638 1420370605 148.3009
0639 1420373535 147.7893
0640 1420376464 148.9859
0641 1420379394 148.6658
0642 1420382324 147.9058
0643 1420385253 148.4328
0644 1420388183 147.0963
0645 1420391113 147.3067
0646 1420394042 146.3972
0647 1420396972 148.7558
0648 1420399902 147.1606
0649 1420402832 147.3259
0650 1420405761 146.8019
0651 1420408691 146.1861
0652 1420411621 144.1466
0653 1420414550 144.6348
0654 1420417480 145.4346
0655 1420420410 143.5607
0656 1420423339 142.7034
0657 1420426269 145.1459
0658 1420429199 143.8233
0659 1420432128 141.9651
0660 1420435058 141.4368
0661 1420437988 140.7031
0662 1420440917 140.9831
0663 1420443847 142.3596
0664 1420446777 141.7413
0665 1420449707 141.7220
0666 1420452636 141.8692
0667 1420455566 139.9175
0668 1420458496 139.2335
0669 1420461425 139.2610
0670 1420464355 140.0770
0671 1420467285 139.5822
0672 1420470214 138.1020
0673 1420473144 140.6426
0674 1420476074 138.1435
0675 1420479003 136.4847
0676 1420481933 136.7162
0677 1420484863 136.8624
0678 1420487792 136.8312
0679 1420490722 136.7866
0680 1420493652 135.4242
0681 1420496582 137.4504
0682 1420499511 135.0509
0683 1420502441 135.0239
0684 1420505371 135.2439
0685 1420508300 133.5744
0686 1420511230 133.1160
0687 1420514160 134.1833
0688 1420517089 131.8138
0689 1420520019 132.8995
0690 1420522949 133.8237
0691 1420525878 132.6330
0692 1420528808 132.2320
0693 1420531738 131.5743
0694 1420534667 132.0825
0695 1420537597 131.4646
0696 1420540527 132.6905
0697 1420543457 131.5325
0698 1420546386 131.7085
0699 1420549316 129.6960
0700 1420552246 129.9839
0701 1420555175 130.2410
0702 1420558105 130.4880
0703 1420561035 128.8723
0704 1420563964 129.6234
0705 1420566894 130.0938
0706 1420569824 129.5966
0707 1420572753 128.1592
0708 1420575683 126.7248
0709 1420578613 125.8250
0710 1420581542 127.5802
0711 1420584472 126.6067
0712 1420587402 129.5065
0713 1420590332 128.3041
0714 1420593261 127.2051
0715 1420596191 126.3525
0716 1420599121 127.2831
0717 1420602050 127.6938
0718 1420604980 126.2715
0719 1420607910 126.1473
0720 1420610839 125.6388
0721 1420613769 125.9050
0722 1420616699 126.4783
0723 1420619628 125.3736
0724 1420622558 126.4129
0725 1420625488 127.0573
0726 1420628417 126.0230
0727 1420631347 125.6524
0728 1420634277 124.5903
0729 1420637207 125.9652
0730 1420640136 124.0729
0731 1420643066 126.6648
0732 1420645996 125.7987
0733 1420648925 125.2474
0734 1420651855 126.8886
0735 1420654785 125.4129
0736 1420657714 124.9463
0737 1420660644 125.2589
0738 1420663574 125.5042
0739 1420666503 126.5387
0740 1420669433 124.9588
0741 1420672363 123.8294
0742 1420675292 124.4016
0743 1420678222 125.1071
0744 1420681152 124.8081
0745 1420684082 124.9277
0746 1420687011 124.5039
0747 1420689941 125.4272
0748 1420692871 125.0566
0749 1420695800 124.5793
0750 1420698730 122.7260
0751 1420701660 123.1909
